# Onda Corporation
# Hydrophone Calibration Data
# 
Calibration_DATE	18-Mar-2024
# 
# Hydrophone description
HYD_MFG	Onda
HYD_MODEL	HNR
HYD_APERTURE_NOM_UM	0500
HYD_SN	2380
HYD_POLARITY	Positive
# 
# External preamplifier description
AMP_MFG	NONE
AMP_MODEL	NONE
AMP_SN	NONE
AMP_GAIN_NOM_DB	NONE
AMP_BW_MHZ	NONE
AMP_OUTPUT_IMP_NOM_OHMS	NONE
# 
# Cable/adaptor between hydrophone and preamplifier
CA_BWT_HYD_AMP	NONE 
# 
# Environment
ELECTRICAL_LOAD	OpenCircuit
WATER_TEMP_DEGC	23.5
WATER_RESISTIVITY_MOHMS-CM	3.0
#
# Calibration data
# Freq(MHz) Sens(dB re. 1V/uPa) Sens(V/Pa) Sens(V^2cm^2/W) Cap(pF)
#
DATA_FIELDS	5
DATA_FIELD	FREQ_MHz
DATA_FIELD	SENS_DB
DATA_FIELD	SENS_VPERPA
DATA_FIELD	SENS_V2CM2PERW
DATA_FIELD	CAP_PF
# End of file header
HEADER_END	0
 0.250	 -253.79	  2.044E-007	6.267E-004	    201.303
 0.300	 -252.16	  2.466E-007	9.121E-004	    201.070
 0.350	 -251.89	  2.545E-007	9.715E-004	    200.842
 0.400	 -251.24	  2.743E-007	1.129E-003	    200.621
 0.450	 -250.52	  2.978E-007	1.330E-003	    200.405
 0.500	 -250.60	  2.953E-007	1.308E-003	    200.195
 0.550	 -250.20	  3.090E-007	1.432E-003	    199.991
 0.600	 -250.14	  3.113E-007	1.454E-003	    199.793
 0.650	 -249.78	  3.244E-007	1.578E-003	    199.600
 0.700	 -249.88	  3.207E-007	1.543E-003	    199.412
 0.750	 -249.98	  3.170E-007	1.508E-003	    199.230
 0.800	 -250.20	  3.091E-007	1.434E-003	    199.054
 0.850	 -250.59	  2.956E-007	1.311E-003	    198.883
 0.900	 -250.91	  2.848E-007	1.216E-003	    198.717
 0.950	 -251.57	  2.639E-007	1.045E-003	    198.556
 1.000	 -252.56	  2.355E-007	8.318E-004	    198.401
 1.050	 -253.06	  2.222E-007	7.406E-004	    198.250
 1.100	 -253.70	  2.066E-007	6.406E-004	    198.105
 1.150	 -253.77	  2.048E-007	6.290E-004	    197.965
 1.200	 -253.93	  2.012E-007	6.072E-004	    197.830
 1.250	 -254.01	  1.993E-007	5.958E-004	    197.699
 1.300	 -253.79	  2.043E-007	6.263E-004	    197.574
 1.350	 -253.86	  2.027E-007	6.161E-004	    197.453
 1.400	 -253.76	  2.051E-007	6.311E-004	    197.337
 1.450	 -253.56	  2.100E-007	6.615E-004	    197.225
 1.500	 -253.45	  2.125E-007	6.774E-004	    197.119
 1.550	 -253.21	  2.186E-007	7.169E-004	    197.017
 1.600	 -253.01	  2.236E-007	7.497E-004	    196.919
 1.650	 -253.11	  2.211E-007	7.334E-004	    196.826
 1.700	 -253.04	  2.228E-007	7.443E-004	    196.737
 1.750	 -252.90	  2.266E-007	7.701E-004	    196.653
 1.800	 -252.98	  2.243E-007	7.545E-004	    196.573
 1.850	 -252.88	  2.270E-007	7.731E-004	    196.497
 1.900	 -252.65	  2.329E-007	8.139E-004	    196.425
 1.950	 -253.02	  2.233E-007	7.476E-004	    196.359
 2.000	 -254.16	  1.958E-007	5.751E-004	    196.296
 2.050	 -255.33	  1.711E-007	4.392E-004	    196.234
 2.100	 -255.36	  1.706E-007	4.367E-004	    196.179
 2.150	 -254.35	  1.916E-007	5.507E-004	    196.128
 2.200	 -253.76	  2.051E-007	6.310E-004	    196.080
 2.250	 -253.44	  2.128E-007	6.795E-004	    196.037
 2.300	 -253.37	  2.146E-007	6.907E-004	    195.997
 2.350	 -253.30	  2.162E-007	7.015E-004	    195.961
 2.400	 -253.30	  2.162E-007	7.013E-004	    195.929
 2.450	 -253.31	  2.161E-007	7.005E-004	    195.901
 2.500	 -253.15	  2.201E-007	7.268E-004	    195.876
 2.550	 -253.04	  2.228E-007	7.445E-004	    195.855
 2.600	 -252.90	  2.264E-007	7.686E-004	    195.838
 2.650	 -252.95	  2.252E-007	7.609E-004	    195.823
 2.700	 -252.99	  2.242E-007	7.537E-004	    195.813
 2.750	 -252.87	  2.272E-007	7.746E-004	    195.806
 2.800	 -252.87	  2.272E-007	7.743E-004	    195.802
 2.850	 -252.90	  2.264E-007	7.690E-004	    195.801
 2.900	 -252.89	  2.267E-007	7.710E-004	    195.804
 2.950	 -253.03	  2.232E-007	7.473E-004	    195.810
 3.000	 -253.01	  2.235E-007	7.493E-004	    195.820
 3.050	 -253.07	  2.220E-007	7.394E-004	    195.832
 3.100	 -253.06	  2.224E-007	7.419E-004	    195.848
 3.150	 -252.94	  2.254E-007	7.622E-004	    195.867
 3.200	 -252.90	  2.266E-007	7.700E-004	    195.888
 3.250	 -252.92	  2.259E-007	7.656E-004	    195.913
 3.300	 -252.87	  2.272E-007	7.742E-004	    195.941
 3.350	 -252.89	  2.266E-007	7.702E-004	    195.972
 3.400	 -252.91	  2.263E-007	7.679E-004	    196.005
 3.450	 -252.90	  2.264E-007	7.687E-004	    196.042
 3.500	 -252.98	  2.244E-007	7.557E-004	    196.081
 3.550	 -253.00	  2.240E-007	7.526E-004	    196.124
 3.600	 -253.03	  2.231E-007	7.463E-004	    196.169
 3.650	 -253.05	  2.225E-007	7.426E-004	    196.216
 3.700	 -252.90	  2.265E-007	7.692E-004	    196.267
 3.750	 -252.82	  2.286E-007	7.837E-004	    196.320
 3.800	 -252.77	  2.299E-007	7.926E-004	    196.375
 3.850	 -252.58	  2.348E-007	8.273E-004	    196.434
 3.900	 -252.51	  2.368E-007	8.410E-004	    196.495
 3.950	 -252.47	  2.381E-007	8.501E-004	    196.558
 4.000	 -252.43	  2.391E-007	8.578E-004	    196.624
 4.050	 -252.51	  2.369E-007	8.421E-004	    196.692
 4.100	 -252.49	  2.373E-007	8.449E-004	    196.763
 4.150	 -252.46	  2.383E-007	8.519E-004	    196.836
 4.200	 -252.58	  2.348E-007	8.272E-004	    196.912
 4.250	 -252.73	  2.311E-007	8.009E-004	    196.990
 4.300	 -252.89	  2.266E-007	7.702E-004	    197.070
 4.350	 -252.79	  2.293E-007	7.888E-004	    197.153
 4.400	 -252.72	  2.311E-007	8.015E-004	    197.237
 4.450	 -252.73	  2.311E-007	8.008E-004	    197.324
 4.500	 -252.55	  2.358E-007	8.340E-004	    197.414
 4.550	 -252.49	  2.373E-007	8.447E-004	    197.505
 4.600	 -252.47	  2.378E-007	8.484E-004	    197.599
 4.650	 -252.41	  2.396E-007	8.610E-004	    197.694
 4.700	 -252.44	  2.389E-007	8.560E-004	    197.792
 4.750	 -252.57	  2.351E-007	8.292E-004	    197.892
 4.800	 -252.59	  2.347E-007	8.263E-004	    197.994
 4.850	 -252.55	  2.358E-007	8.340E-004	    198.098
 4.900	 -252.49	  2.373E-007	8.449E-004	    198.204
 4.950	 -252.49	  2.373E-007	8.447E-004	    198.312
 5.000	 -252.51	  2.368E-007	8.411E-004	    198.422
 5.050	 -252.36	  2.409E-007	8.708E-004	    198.534
 5.100	 -252.32	  2.421E-007	8.795E-004	    198.647
 5.150	 -252.28	  2.431E-007	8.864E-004	    198.763
 5.200	 -252.24	  2.443E-007	8.951E-004	    198.881
 5.250	 -252.27	  2.436E-007	8.902E-004	    199.000
 5.300	 -252.19	  2.457E-007	9.052E-004	    199.121
 5.350	 -252.11	  2.481E-007	9.234E-004	    199.244
 5.400	 -252.13	  2.476E-007	9.194E-004	    199.369
 5.450	 -252.08	  2.487E-007	9.281E-004	    199.496
 5.500	 -252.04	  2.499E-007	9.370E-004	    199.624
 5.550	 -252.04	  2.500E-007	9.375E-004	    199.754
 5.600	 -252.00	  2.511E-007	9.461E-004	    199.886
 5.650	 -252.04	  2.501E-007	9.379E-004	    200.019
 5.700	 -252.01	  2.509E-007	9.443E-004	    200.154
 5.750	 -251.93	  2.531E-007	9.610E-004	    200.291
 5.800	 -251.92	  2.535E-007	9.637E-004	    200.429
 5.850	 -251.90	  2.541E-007	9.685E-004	    200.569
 5.900	 -251.93	  2.533E-007	9.621E-004	    200.711
 5.950	 -251.87	  2.549E-007	9.747E-004	    200.854
 6.000	 -251.88	  2.547E-007	9.729E-004	    200.999
 6.050	 -251.94	  2.530E-007	9.598E-004	    201.145
 6.100	 -251.92	  2.535E-007	9.638E-004	    201.293
 6.150	 -251.82	  2.564E-007	9.865E-004	    201.443
 6.200	 -251.80	  2.572E-007	9.921E-004	    201.594
 6.250	 -251.74	  2.588E-007	1.005E-003	    201.746
 6.300	 -251.64	  2.618E-007	1.028E-003	    201.900
 6.350	 -251.66	  2.611E-007	1.022E-003	    202.056
 6.400	 -251.73	  2.592E-007	1.008E-003	    202.213
 6.450	 -251.74	  2.589E-007	1.006E-003	    202.371
 6.500	 -251.73	  2.592E-007	1.008E-003	    202.531
 6.550	 -251.65	  2.616E-007	1.026E-003	    202.692
 6.600	 -251.60	  2.629E-007	1.037E-003	    202.855
 6.650	 -251.65	  2.616E-007	1.026E-003	    203.019
 6.700	 -251.67	  2.609E-007	1.021E-003	    203.185
 6.750	 -251.64	  2.619E-007	1.029E-003	    203.352
 6.800	 -251.58	  2.638E-007	1.044E-003	    203.520
 6.850	 -251.51	  2.659E-007	1.060E-003	    203.690
 6.900	 -251.53	  2.652E-007	1.055E-003	    203.861
 6.950	 -251.56	  2.642E-007	1.047E-003	    204.034
 7.000	 -251.54	  2.648E-007	1.052E-003	    204.208
 7.050	 -251.51	  2.658E-007	1.059E-003	    204.383
 7.100	 -251.50	  2.659E-007	1.061E-003	    204.560
 7.150	 -251.52	  2.656E-007	1.058E-003	    204.738
 7.200	 -251.47	  2.669E-007	1.069E-003	    204.917
 7.250	 -251.44	  2.680E-007	1.078E-003	    205.098
 7.300	 -251.50	  2.662E-007	1.063E-003	    205.280
 7.350	 -251.49	  2.663E-007	1.064E-003	    205.464
 7.400	 -251.46	  2.674E-007	1.073E-003	    205.649
 7.450	 -251.44	  2.680E-007	1.078E-003	    205.835
 7.500	 -251.43	  2.681E-007	1.078E-003	    206.022
 7.550	 -251.43	  2.682E-007	1.079E-003	    206.211
 7.600	 -251.44	  2.679E-007	1.077E-003	    206.401
 7.650	 -251.42	  2.686E-007	1.082E-003	    206.593
 7.700	 -251.33	  2.715E-007	1.106E-003	    206.786
 7.750	 -251.28	  2.728E-007	1.116E-003	    206.980
 7.800	 -251.36	  2.703E-007	1.096E-003	    207.175
 7.850	 -251.47	  2.670E-007	1.070E-003	    207.372
 7.900	 -251.46	  2.672E-007	1.071E-003	    207.570
 7.950	 -251.45	  2.677E-007	1.075E-003	    207.770
 8.000	 -251.41	  2.689E-007	1.085E-003	    207.971
 8.050	 -251.30	  2.723E-007	1.112E-003	    208.173
 8.100	 -251.25	  2.740E-007	1.126E-003	    208.377
 8.150	 -251.27	  2.733E-007	1.121E-003	    208.582
 8.200	 -251.24	  2.741E-007	1.127E-003	    208.788
 8.250	 -251.25	  2.737E-007	1.124E-003	    208.996
 8.300	 -251.25	  2.739E-007	1.126E-003	    209.205
 8.350	 -251.10	  2.787E-007	1.165E-003	    209.415
 8.400	 -251.01	  2.814E-007	1.188E-003	    209.627
 8.450	 -251.06	  2.799E-007	1.175E-003	    209.840
 8.500	 -251.15	  2.769E-007	1.150E-003	    210.055
 8.550	 -251.19	  2.758E-007	1.141E-003	    210.271
 8.600	 -251.10	  2.786E-007	1.164E-003	    210.488
 8.650	 -251.01	  2.815E-007	1.189E-003	    210.707
 8.700	 -251.03	  2.809E-007	1.184E-003	    210.927
 8.750	 -251.12	  2.780E-007	1.159E-003	    211.149
 8.800	 -251.17	  2.762E-007	1.145E-003	    211.372
 8.850	 -251.18	  2.759E-007	1.142E-003	    211.596
 8.900	 -251.09	  2.789E-007	1.167E-003	    211.823
 8.950	 -251.01	  2.816E-007	1.189E-003	    212.050
 9.000	 -251.02	  2.811E-007	1.185E-003	    212.279
 9.050	 -251.01	  2.814E-007	1.188E-003	    212.510
 9.100	 -251.06	  2.798E-007	1.174E-003	    212.742
 9.150	 -251.08	  2.792E-007	1.169E-003	    212.975
 9.200	 -251.02	  2.811E-007	1.185E-003	    213.210
 9.250	 -250.98	  2.824E-007	1.196E-003	    213.447
 9.300	 -250.97	  2.829E-007	1.201E-003	    213.685
 9.350	 -251.02	  2.813E-007	1.187E-003	    213.925
 9.400	 -251.01	  2.815E-007	1.189E-003	    214.166
 9.450	 -251.02	  2.813E-007	1.187E-003	    214.409
 9.500	 -250.98	  2.825E-007	1.197E-003	    214.654
 9.550	 -251.00	  2.817E-007	1.190E-003	    214.900
 9.600	 -250.97	  2.828E-007	1.200E-003	    215.148
 9.650	 -250.92	  2.845E-007	1.214E-003	    215.398
 9.700	 -250.95	  2.833E-007	1.204E-003	    215.649
 9.750	 -251.06	  2.800E-007	1.176E-003	    215.902
 9.800	 -251.08	  2.793E-007	1.170E-003	    216.157
 9.850	 -251.01	  2.815E-007	1.189E-003	    216.413
 9.900	 -250.98	  2.824E-007	1.196E-003	    216.671
 9.950	 -251.00	  2.820E-007	1.193E-003	    216.931
10.000	 -251.01	  2.815E-007	1.189E-003	    217.193
10.050	 -251.02	  2.812E-007	1.186E-003	    217.457
10.100	 -250.98	  2.825E-007	1.197E-003	    217.722
10.150	 -250.94	  2.839E-007	1.209E-003	    217.989
10.200	 -251.00	  2.819E-007	1.192E-003	    218.259
10.250	 -250.99	  2.822E-007	1.195E-003	    218.530
10.300	 -250.88	  2.856E-007	1.224E-003	    218.803
10.350	 -250.98	  2.825E-007	1.198E-003	    219.078
10.400	 -251.16	  2.767E-007	1.149E-003	    219.355
10.450	 -251.15	  2.770E-007	1.151E-003	    219.634
10.500	 -251.20	  2.753E-007	1.137E-003	    219.915
10.550	 -251.20	  2.755E-007	1.138E-003	    220.198
10.600	 -251.01	  2.816E-007	1.189E-003	    220.483
10.650	 -250.97	  2.829E-007	1.201E-003	    220.770
10.700	 -251.10	  2.786E-007	1.165E-003	    221.060
10.750	 -251.17	  2.765E-007	1.147E-003	    221.351
10.800	 -251.13	  2.776E-007	1.156E-003	    221.645
10.850	 -251.16	  2.767E-007	1.148E-003	    221.941
10.900	 -251.20	  2.755E-007	1.139E-003	    222.239
10.950	 -251.30	  2.723E-007	1.113E-003	    222.539
11.000	 -251.37	  2.701E-007	1.094E-003	    222.842
11.050	 -251.31	  2.719E-007	1.109E-003	    223.147
11.100	 -251.28	  2.729E-007	1.117E-003	    223.454
11.150	 -251.30	  2.723E-007	1.112E-003	    223.764
11.200	 -251.41	  2.687E-007	1.083E-003	    224.076
11.250	 -251.37	  2.702E-007	1.095E-003	    224.391
11.300	 -251.44	  2.679E-007	1.076E-003	    224.708
11.350	 -251.45	  2.675E-007	1.073E-003	    225.027
11.400	 -251.55	  2.645E-007	1.049E-003	    225.349
11.450	 -251.57	  2.638E-007	1.044E-003	    225.674
11.500	 -251.59	  2.634E-007	1.041E-003	    226.001
11.550	 -251.49	  2.665E-007	1.066E-003	    226.331
11.600	 -251.55	  2.646E-007	1.050E-003	    226.664
11.650	 -251.63	  2.620E-007	1.030E-003	    226.999
11.700	 -251.75	  2.586E-007	1.003E-003	    227.337
11.750	 -251.73	  2.590E-007	1.006E-003	    227.677
11.800	 -251.65	  2.614E-007	1.025E-003	    228.021
11.850	 -251.63	  2.622E-007	1.031E-003	    228.367
11.900	 -251.70	  2.600E-007	1.014E-003	    228.717
11.950	 -251.78	  2.576E-007	9.951E-004	    229.069
12.000	 -251.77	  2.580E-007	9.982E-004	    229.424
12.050	 -251.76	  2.583E-007	1.001E-003	    229.782
12.100	 -251.78	  2.577E-007	9.964E-004	    230.143
12.150	 -251.85	  2.555E-007	9.791E-004	    230.507
12.200	 -251.95	  2.525E-007	9.567E-004	    230.875
12.250	 -252.04	  2.499E-007	9.370E-004	    231.245
12.300	 -252.10	  2.483E-007	9.248E-004	    231.619
12.350	 -252.07	  2.491E-007	9.309E-004	    231.995
12.400	 -251.99	  2.514E-007	9.481E-004	    232.376
12.450	 -251.98	  2.518E-007	9.511E-004	    232.759
12.500	 -252.07	  2.491E-007	9.307E-004	    233.145
12.550	 -252.18	  2.461E-007	9.086E-004	    233.536
12.600	 -252.29	  2.430E-007	8.857E-004	    233.929
12.650	 -252.33	  2.417E-007	8.766E-004	    234.326
12.700	 -252.38	  2.405E-007	8.676E-004	    234.727
12.750	 -252.44	  2.387E-007	8.549E-004	    235.131
12.800	 -252.39	  2.403E-007	8.660E-004	    235.539
12.850	 -252.35	  2.414E-007	8.738E-004	    235.950
12.900	 -252.44	  2.387E-007	8.546E-004	    236.365
12.950	 -252.52	  2.365E-007	8.388E-004	    236.784
13.000	 -252.67	  2.325E-007	8.112E-004	    237.206
13.050	 -252.78	  2.296E-007	7.908E-004	    237.633
13.100	 -252.64	  2.333E-007	8.166E-004	    238.063
13.150	 -252.65	  2.331E-007	8.153E-004	    238.497
13.200	 -252.79	  2.295E-007	7.898E-004	    238.935
13.250	 -252.85	  2.277E-007	7.778E-004	    239.377
13.300	 -252.92	  2.259E-007	7.656E-004	    239.823
13.350	 -252.81	  2.287E-007	7.847E-004	    240.274
13.400	 -252.71	  2.314E-007	8.030E-004	    240.728
13.450	 -252.88	  2.270E-007	7.733E-004	    241.187
13.500	 -253.03	  2.230E-007	7.458E-004	    241.650
13.550	 -253.16	  2.199E-007	7.252E-004	    242.117
13.600	 -253.06	  2.224E-007	7.419E-004	    242.589
13.650	 -252.99	  2.241E-007	7.534E-004	    243.065
13.700	 -253.11	  2.210E-007	7.324E-004	    243.546
13.750	 -253.34	  2.153E-007	6.956E-004	    244.031
13.800	 -253.37	  2.146E-007	6.909E-004	    244.520
13.850	 -253.30	  2.163E-007	7.016E-004	    245.014
13.900	 -253.35	  2.150E-007	6.932E-004	    245.513
13.950	 -253.47	  2.121E-007	6.747E-004	    246.017
14.000	 -253.64	  2.080E-007	6.492E-004	    246.525
14.050	 -253.58	  2.095E-007	6.583E-004	    247.039
14.100	 -253.54	  2.105E-007	6.646E-004	    247.557
14.150	 -253.63	  2.081E-007	6.496E-004	    248.080
14.200	 -253.78	  2.046E-007	6.280E-004	    248.608
14.250	 -253.92	  2.013E-007	6.080E-004	    249.141
14.300	 -253.97	  2.001E-007	6.007E-004	    249.680
14.350	 -253.97	  2.003E-007	6.020E-004	    250.223
14.400	 -254.01	  1.994E-007	5.964E-004	    250.772
14.450	 -254.00	  1.994E-007	5.967E-004	    251.326
14.500	 -254.03	  1.988E-007	5.925E-004	    251.885
14.550	 -254.09	  1.975E-007	5.852E-004	    252.450
14.600	 -254.05	  1.985E-007	5.910E-004	    253.020
14.650	 -254.03	  1.988E-007	5.931E-004	    253.596
14.700	 -254.14	  1.964E-007	5.784E-004	    254.177
14.750	 -254.36	  1.915E-007	5.499E-004	    254.764
14.800	 -254.38	  1.910E-007	5.471E-004	    255.357
14.850	 -254.36	  1.915E-007	5.502E-004	    255.956
14.900	 -254.47	  1.891E-007	5.363E-004	    256.560
14.950	 -254.57	  1.868E-007	5.233E-004	    257.170
15.000	 -254.72	  1.837E-007	5.060E-004	    257.786
15.050	 -254.77	  1.825E-007	4.997E-004	    258.408
15.100	 -254.71	  1.838E-007	5.067E-004	    259.037
15.150	 -254.80	  1.820E-007	4.966E-004	    259.671
15.200	 -254.82	  1.816E-007	4.949E-004	    260.311
15.250	 -254.82	  1.816E-007	4.946E-004	    260.958
15.300	 -254.90	  1.799E-007	4.856E-004	    261.611
15.350	 -255.04	  1.770E-007	4.699E-004	    262.271
15.400	 -255.03	  1.771E-007	4.706E-004	    262.937
15.450	 -255.10	  1.757E-007	4.633E-004	    263.610
15.500	 -255.10	  1.758E-007	4.635E-004	    264.289
15.550	 -255.30	  1.718E-007	4.429E-004	    264.975
15.600	 -255.36	  1.705E-007	4.361E-004	    265.667
15.650	 -255.35	  1.709E-007	4.380E-004	    266.367
15.700	 -255.36	  1.706E-007	4.366E-004	    267.074
15.750	 -255.28	  1.721E-007	4.445E-004	    267.787
15.800	 -255.53	  1.672E-007	4.196E-004	    268.508
15.850	 -255.59	  1.662E-007	4.145E-004	    269.236
15.900	 -255.64	  1.652E-007	4.093E-004	    269.971
15.950	 -255.72	  1.637E-007	4.018E-004	    270.713
16.000	 -255.74	  1.633E-007	3.999E-004	    271.462
16.050	 -255.82	  1.618E-007	3.925E-004	    272.219
16.100	 -255.83	  1.617E-007	3.920E-004	    272.983
16.150	 -255.87	  1.610E-007	3.886E-004	    273.755
16.200	 -255.88	  1.606E-007	3.870E-004	    274.534
16.250	 -256.03	  1.579E-007	3.742E-004	    275.321
16.300	 -256.13	  1.561E-007	3.654E-004	    276.116
16.350	 -256.13	  1.561E-007	3.656E-004	    276.918
16.400	 -256.22	  1.545E-007	3.580E-004	    277.729
16.450	 -256.23	  1.543E-007	3.570E-004	    278.547
16.500	 -256.29	  1.532E-007	3.522E-004	    279.373
16.550	 -256.40	  1.514E-007	3.436E-004	    280.208
16.600	 -256.42	  1.509E-007	3.418E-004	    281.051
16.650	 -256.66	  1.469E-007	3.236E-004	    281.901
16.700	 -256.90	  1.429E-007	3.062E-004	    282.761
16.750	 -256.87	  1.434E-007	3.085E-004	    283.628
16.800	 -256.79	  1.448E-007	3.144E-004	    284.504
16.850	 -256.65	  1.470E-007	3.243E-004	    285.389
16.900	 -256.80	  1.446E-007	3.136E-004	    286.283
16.950	 -256.89	  1.431E-007	3.071E-004	    287.184
17.000	 -256.94	  1.423E-007	3.038E-004	    288.096
17.050	 -256.82	  1.442E-007	3.119E-004	    289.016
17.100	 -256.52	  1.492E-007	3.340E-004	    289.945
17.150	 -257.08	  1.400E-007	2.939E-004	    290.883
17.200	 -257.03	  1.407E-007	2.969E-004	    291.831
17.250	 -257.03	  1.408E-007	2.972E-004	    292.788
17.300	 -257.17	  1.386E-007	2.881E-004	    293.754
17.350	 -257.20	  1.381E-007	2.860E-004	    294.729
17.400	 -257.28	  1.367E-007	2.804E-004	    295.714
17.450	 -257.39	  1.350E-007	2.733E-004	    296.709
17.500	 -257.45	  1.341E-007	2.697E-004	    297.713
17.550	 -257.48	  1.336E-007	2.678E-004	    298.727
17.600	 -257.55	  1.327E-007	2.639E-004	    299.750
17.650	 -257.65	  1.311E-007	2.579E-004	    300.784
17.700	 -257.70	  1.303E-007	2.548E-004	    301.827
17.750	 -257.64	  1.313E-007	2.585E-004	    302.880
17.800	 -257.65	  1.310E-007	2.575E-004	    303.944
17.850	 -257.63	  1.314E-007	2.588E-004	    305.018
17.900	 -257.59	  1.320E-007	2.613E-004	    306.102
17.950	 -257.64	  1.312E-007	2.582E-004	    307.196
18.000	 -257.77	  1.292E-007	2.504E-004	    308.301
18.050	 -257.86	  1.280E-007	2.458E-004	    309.417
18.100	 -257.86	  1.279E-007	2.456E-004	    310.544
18.150	 -257.90	  1.274E-007	2.433E-004	    311.681
18.200	 -257.86	  1.280E-007	2.456E-004	    312.830
18.250	 -257.95	  1.266E-007	2.405E-004	    313.990
18.300	 -258.04	  1.254E-007	2.358E-004	    315.160
18.350	 -258.09	  1.246E-007	2.327E-004	    316.342
18.400	 -258.08	  1.247E-007	2.333E-004	    317.535
18.450	 -258.10	  1.245E-007	2.323E-004	    318.739
18.500	 -258.08	  1.247E-007	2.334E-004	    319.955
18.550	 -258.11	  1.243E-007	2.318E-004	    321.182
18.600	 -258.11	  1.243E-007	2.319E-004	    322.421
18.650	 -258.17	  1.235E-007	2.288E-004	    323.671
18.700	 -258.40	  1.202E-007	2.166E-004	    324.933
18.750	 -258.53	  1.184E-007	2.103E-004	    326.207
18.800	 -258.42	  1.199E-007	2.157E-004	    327.492
18.850	 -258.35	  1.209E-007	2.191E-004	    328.791
18.900	 -258.57	  1.179E-007	2.086E-004	    330.100
18.950	 -258.68	  1.164E-007	2.032E-004	    331.423
19.000	 -258.72	  1.159E-007	2.015E-004	    332.758
19.050	 -258.69	  1.162E-007	2.026E-004	    334.107
19.100	 -258.62	  1.172E-007	2.059E-004	    335.467
19.150	 -258.55	  1.182E-007	2.094E-004	    336.840
19.200	 -258.56	  1.180E-007	2.089E-004	    338.227
19.250	 -258.73	  1.157E-007	2.010E-004	    339.625
19.300	 -258.71	  1.160E-007	2.017E-004	    341.037
19.350	 -258.64	  1.169E-007	2.050E-004	    342.462
19.400	 -258.80	  1.148E-007	1.975E-004	    343.900
19.450	 -258.87	  1.139E-007	1.947E-004	    345.351
19.500	 -258.95	  1.128E-007	1.909E-004	    346.815
19.550	 -259.16	  1.101E-007	1.819E-004	    348.293
19.600	 -259.19	  1.098E-007	1.808E-004	    349.785
19.650	 -258.79	  1.149E-007	1.980E-004	    351.290
19.700	 -258.66	  1.167E-007	2.042E-004	    352.809
19.750	 -258.79	  1.149E-007	1.980E-004	    354.342
19.800	 -258.93	  1.132E-007	1.921E-004	    355.888
19.850	 -258.91	  1.134E-007	1.929E-004	    357.449
19.900	 -258.92	  1.132E-007	1.922E-004	    358.096
19.950	 -258.96	  1.128E-007	1.908E-004	    358.524
20.000	 -258.99	  1.124E-007	1.894E-004	    358.952
